#  E (eV)   dos(E)     Int dos(E) EFermi =    9.481 eV
  -2.000  0.4407E-83  0.4407E-84
  -1.900  0.4407E-83  0.8815E-84
  -1.800  0.4407E-83  0.1322E-83
  -1.700  0.4407E-83  0.1763E-83
  -1.600  0.4407E-83  0.2204E-83
  -1.500  0.4407E-83  0.2644E-83
  -1.400  0.4407E-83  0.3085E-83
  -1.300  0.4407E-83  0.3526E-83
  -1.200  0.4407E-83  0.3967E-83
  -1.100  0.4407E-83  0.4407E-83
  -1.000  0.4425E-83  0.4850E-83
  -0.900  0.1288E-76  0.1288E-77
  -0.800  0.2459E-68  0.2459E-69
  -0.700  0.1600E-60  0.1600E-61
  -0.600  0.3549E-53  0.3549E-54
  -0.500  0.2684E-46  0.2684E-47
  -0.400  0.6924E-40  0.6924E-41
  -0.300  0.6097E-34  0.6097E-35
  -0.200  0.1833E-28  0.1833E-29
  -0.100  0.1883E-23  0.1883E-24
   0.000  0.6617E-19  0.6617E-20
   0.100  0.7959E-15  0.7960E-16
   0.200  0.3281E-11  0.3281E-12
   0.300  0.4641E-08  0.4645E-09
   0.400  0.2258E-05  0.2263E-06
   0.500  0.3788E-03  0.3811E-04
   0.600  0.2202E-01  0.2240E-02
   0.700  0.4480E+00  0.4704E-01
   0.800  0.3298E+01  0.3768E+00
   0.900  0.1006E+02  0.1383E+01
   1.000  0.1994E+02  0.3377E+01
   1.100  0.4017E+02  0.7394E+01
   1.200  0.7043E+02  0.1444E+02
   1.300  0.9924E+02  0.2436E+02
   1.400  0.1149E+03  0.3585E+02
   1.500  0.1132E+03  0.4717E+02
   1.600  0.1043E+03  0.5760E+02
   1.700  0.9960E+02  0.6756E+02
   1.800  0.1057E+03  0.7813E+02
   1.900  0.1291E+03  0.9103E+02
   2.000  0.1646E+03  0.1075E+03
   2.100  0.1905E+03  0.1265E+03
   2.200  0.1964E+03  0.1462E+03
   2.300  0.1888E+03  0.1651E+03
   2.400  0.1750E+03  0.1826E+03
   2.500  0.1579E+03  0.1984E+03
   2.600  0.1510E+03  0.2135E+03
   2.700  0.1726E+03  0.2307E+03
   2.800  0.2348E+03  0.2542E+03
   2.900  0.3018E+03  0.2844E+03
   3.000  0.2875E+03  0.3131E+03
   3.100  0.1948E+03  0.3326E+03
   3.200  0.1077E+03  0.3434E+03
   3.300  0.5675E+02  0.3491E+03
   3.400  0.3459E+02  0.3525E+03
   3.500  0.3132E+02  0.3556E+03
   3.600  0.3372E+02  0.3590E+03
   3.700  0.3914E+02  0.3629E+03
   3.800  0.5182E+02  0.3681E+03
   3.900  0.6755E+02  0.3749E+03
   4.000  0.7538E+02  0.3824E+03
   4.100  0.7239E+02  0.3896E+03
   4.200  0.6432E+02  0.3961E+03
   4.300  0.5766E+02  0.4018E+03
   4.400  0.5213E+02  0.4071E+03
   4.500  0.4743E+02  0.4118E+03
   4.600  0.4582E+02  0.4164E+03
   4.700  0.4484E+02  0.4209E+03
   4.800  0.4339E+02  0.4252E+03
   4.900  0.4317E+02  0.4295E+03
   5.000  0.4434E+02  0.4340E+03
   5.100  0.4526E+02  0.4385E+03
   5.200  0.4504E+02  0.4430E+03
   5.300  0.4535E+02  0.4475E+03
   5.400  0.4826E+02  0.4523E+03
   5.500  0.5153E+02  0.4575E+03
   5.600  0.5242E+02  0.4627E+03
   5.700  0.5307E+02  0.4680E+03
   5.800  0.5552E+02  0.4736E+03
   5.900  0.5648E+02  0.4792E+03
   6.000  0.5659E+02  0.4849E+03
   6.100  0.5762E+02  0.4907E+03
   6.200  0.5905E+02  0.4966E+03
   6.300  0.6234E+02  0.5028E+03
   6.400  0.6673E+02  0.5095E+03
   6.500  0.6975E+02  0.5165E+03
   6.600  0.7006E+02  0.5235E+03
   6.700  0.7092E+02  0.5306E+03
   6.800  0.7367E+02  0.5379E+03
   6.900  0.7232E+02  0.5452E+03
   7.000  0.6452E+02  0.5516E+03
   7.100  0.5676E+02  0.5573E+03
   7.200  0.4542E+02  0.5618E+03
   7.300  0.2727E+02  0.5646E+03
   7.400  0.1118E+02  0.5657E+03
   7.500  0.2893E+01  0.5660E+03
   7.600  0.3979E+00  0.5660E+03
   7.700  0.2409E-01  0.5660E+03
   7.800  0.5661E-03  0.5660E+03
   7.900  0.6334E-05  0.5660E+03
   8.000  0.1293E-03  0.5660E+03
   8.100  0.3847E-02  0.5660E+03
   8.200  0.4039E-01  0.5660E+03
   8.300  0.1592E+00  0.5660E+03
   8.400  0.2659E+00  0.5660E+03
   8.500  0.2409E+00  0.5661E+03
   8.600  0.3262E+00  0.5661E+03
   8.700  0.6255E+00  0.5662E+03
   8.800  0.7362E+00  0.5662E+03
   8.900  0.8191E+00  0.5663E+03
   9.000  0.8614E+00  0.5664E+03
   9.100  0.9593E+00  0.5665E+03
   9.200  0.1195E+01  0.5666E+03
   9.300  0.1392E+01  0.5668E+03
   9.400  0.1746E+01  0.5669E+03
   9.500  0.2004E+01  0.5671E+03
   9.600  0.1746E+01  0.5673E+03
   9.700  0.1793E+01  0.5675E+03
   9.800  0.2372E+01  0.5677E+03
   9.900  0.2890E+01  0.5680E+03
  10.000  0.2945E+01  0.5683E+03
  10.100  0.3028E+01  0.5686E+03
  10.200  0.3425E+01  0.5690E+03
  10.300  0.3424E+01  0.5693E+03
  10.400  0.3457E+01  0.5696E+03
  10.500  0.4073E+01  0.5701E+03
  10.600  0.5147E+01  0.5706E+03
  10.700  0.5394E+01  0.5711E+03
  10.800  0.4849E+01  0.5716E+03
  10.900  0.4495E+01  0.5720E+03
  11.000  0.5385E+01  0.5726E+03
  11.100  0.6963E+01  0.5733E+03
  11.200  0.7300E+01  0.5740E+03
  11.300  0.7216E+01  0.5747E+03
  11.400  0.7684E+01  0.5755E+03
  11.500  0.7636E+01  0.5763E+03
  11.600  0.7829E+01  0.5770E+03
  11.700  0.9487E+01  0.5780E+03
  11.800  0.1131E+02  0.5791E+03
  11.900  0.1141E+02  0.5803E+03
  12.000  0.1103E+02  0.5814E+03
  12.100  0.1168E+02  0.5825E+03
  12.200  0.1388E+02  0.5839E+03
  12.300  0.1657E+02  0.5856E+03
  12.400  0.1774E+02  0.5874E+03
  12.500  0.1791E+02  0.5891E+03
  12.600  0.1930E+02  0.5911E+03
  12.700  0.2082E+02  0.5932E+03
  12.800  0.2057E+02  0.5952E+03
  12.900  0.2003E+02  0.5972E+03
  13.000  0.2141E+02  0.5994E+03
  13.100  0.2310E+02  0.6017E+03
  13.200  0.2301E+02  0.6040E+03
  13.300  0.2313E+02  0.6063E+03
  13.400  0.2423E+02  0.6087E+03
  13.500  0.2548E+02  0.6113E+03
  13.600  0.2691E+02  0.6139E+03
  13.700  0.2782E+02  0.6167E+03
  13.800  0.2794E+02  0.6195E+03
  13.900  0.2678E+02  0.6222E+03
  14.000  0.2531E+02  0.6247E+03
  14.100  0.2382E+02  0.6271E+03
  14.200  0.2359E+02  0.6295E+03
  14.300  0.2520E+02  0.6320E+03
  14.400  0.2621E+02  0.6346E+03
  14.500  0.2444E+02  0.6371E+03
  14.600  0.2128E+02  0.6392E+03
  14.700  0.1927E+02  0.6411E+03
  14.800  0.1957E+02  0.6431E+03
  14.900  0.2063E+02  0.6451E+03
  15.000  0.2149E+02  0.6473E+03
  15.100  0.2295E+02  0.6496E+03
  15.200  0.2415E+02  0.6520E+03
  15.300  0.2518E+02  0.6545E+03
  15.400  0.2828E+02  0.6573E+03
  15.500  0.3581E+02  0.6609E+03
  15.600  0.4388E+02  0.6653E+03
  15.700  0.4493E+02  0.6698E+03
  15.800  0.4030E+02  0.6738E+03
  15.900  0.3621E+02  0.6774E+03
  16.000  0.3323E+02  0.6808E+03
  16.100  0.3043E+02  0.6838E+03
  16.200  0.2887E+02  0.6867E+03
  16.300  0.2641E+02  0.6893E+03
  16.400  0.2218E+02  0.6916E+03
  16.500  0.1751E+02  0.6933E+03
  16.600  0.1243E+02  0.6946E+03
  16.700  0.7496E+01  0.6953E+03
  16.800  0.3939E+01  0.6957E+03
  16.900  0.1990E+01  0.6959E+03
  17.000  0.8442E+00  0.6960E+03
  17.100  0.1950E+00  0.6960E+03
  17.200  0.1879E-01  0.6960E+03
  17.300  0.6756E-03  0.6960E+03
  17.400  0.8614E-05  0.6960E+03
  17.500  0.3808E-07  0.6960E+03
  17.600  0.5776E-10  0.6960E+03
  17.700  0.2991E-13  0.6960E+03
  17.800  0.5278E-17  0.6960E+03
  17.900  0.3168E-21  0.6960E+03
  18.000  0.6466E-26  0.6960E+03
