#  E (eV)   dos(E)     Int dos(E) EFermi =    7.919 eV
  -2.000  0.4465E-83  0.4465E-84
  -1.900  0.4465E-83  0.8929E-84
  -1.800  0.4465E-83  0.1339E-83
  -1.700  0.4465E-83  0.1786E-83
  -1.600  0.4465E-83  0.2232E-83
  -1.500  0.4465E-83  0.2679E-83
  -1.400  0.4465E-83  0.3125E-83
  -1.300  0.4465E-83  0.3572E-83
  -1.200  0.4465E-83  0.4018E-83
  -1.100  0.4465E-83  0.4465E-83
  -1.000  0.4465E-83  0.4911E-83
  -0.900  0.4465E-83  0.5358E-83
  -0.800  0.1115E-81  0.1650E-82
  -0.700  0.3734E-73  0.3734E-74
  -0.600  0.4440E-65  0.4440E-66
  -0.500  0.1800E-57  0.1800E-58
  -0.400  0.2489E-50  0.2489E-51
  -0.300  0.1175E-43  0.1175E-44
  -0.200  0.1895E-37  0.1895E-38
  -0.100  0.1046E-31  0.1046E-32
   0.000  0.1979E-26  0.1979E-27
   0.100  0.1285E-21  0.1286E-22
   0.200  0.2877E-17  0.2877E-18
   0.300  0.2227E-13  0.2227E-14
   0.400  0.5996E-10  0.5998E-11
   0.500  0.5666E-07  0.5672E-08
   0.600  0.1904E-04  0.1909E-05
   0.700  0.2322E-02  0.2341E-03
   0.800  0.1063E+00  0.1087E-01
   0.900  0.1923E+01  0.2032E+00
   1.000  0.1475E+02  0.1678E+01
   1.100  0.5264E+02  0.6942E+01
   1.200  0.1015E+03  0.1709E+02
   1.300  0.1318E+03  0.3026E+02
   1.400  0.1338E+03  0.4364E+02
   1.500  0.1102E+03  0.5466E+02
   1.600  0.8581E+02  0.6324E+02
   1.700  0.8003E+02  0.7125E+02
   1.800  0.9383E+02  0.8063E+02
   1.900  0.1444E+03  0.9508E+02
   2.000  0.2013E+03  0.1152E+03
   2.100  0.2116E+03  0.1364E+03
   2.200  0.2148E+03  0.1578E+03
   2.300  0.2054E+03  0.1784E+03
   2.400  0.1652E+03  0.1949E+03
   2.500  0.1258E+03  0.2075E+03
   2.600  0.1220E+03  0.2197E+03
   2.700  0.2072E+03  0.2404E+03
   2.800  0.3416E+03  0.2746E+03
   2.900  0.3513E+03  0.3097E+03
   3.000  0.2439E+03  0.3341E+03
   3.100  0.1433E+03  0.3484E+03
   3.200  0.7783E+02  0.3562E+03
   3.300  0.3505E+02  0.3597E+03
   3.400  0.1621E+02  0.3613E+03
   3.500  0.1553E+02  0.3629E+03
   3.600  0.2050E+02  0.3649E+03
   3.700  0.3218E+02  0.3682E+03
   3.800  0.5972E+02  0.3741E+03
   3.900  0.8703E+02  0.3828E+03
   4.000  0.8533E+02  0.3914E+03
   4.100  0.6968E+02  0.3983E+03
   4.200  0.6095E+02  0.4044E+03
   4.300  0.5802E+02  0.4102E+03
   4.400  0.5429E+02  0.4157E+03
   4.500  0.5008E+02  0.4207E+03
   4.600  0.4733E+02  0.4254E+03
   4.700  0.4371E+02  0.4298E+03
   4.800  0.4149E+02  0.4339E+03
   4.900  0.4245E+02  0.4382E+03
   5.000  0.4559E+02  0.4427E+03
   5.100  0.4717E+02  0.4474E+03
   5.200  0.4517E+02  0.4520E+03
   5.300  0.4523E+02  0.4565E+03
   5.400  0.4719E+02  0.4612E+03
   5.500  0.4687E+02  0.4659E+03
   5.600  0.4675E+02  0.4706E+03
   5.700  0.5162E+02  0.4757E+03
   5.800  0.5746E+02  0.4815E+03
   5.900  0.5887E+02  0.4874E+03
   6.000  0.5792E+02  0.4931E+03
   6.100  0.5754E+02  0.4989E+03
   6.200  0.6028E+02  0.5049E+03
   6.300  0.6168E+02  0.5111E+03
   6.400  0.6371E+02  0.5175E+03
   6.500  0.7010E+02  0.5245E+03
   6.600  0.8053E+02  0.5325E+03
   6.700  0.8833E+02  0.5414E+03
   6.800  0.8593E+02  0.5500E+03
   6.900  0.7631E+02  0.5576E+03
   7.000  0.6487E+02  0.5641E+03
   7.100  0.5061E+02  0.5691E+03
   7.200  0.3356E+02  0.5725E+03
   7.300  0.2058E+02  0.5746E+03
   7.400  0.1059E+02  0.5756E+03
   7.500  0.3347E+01  0.5759E+03
   7.600  0.5155E+00  0.5760E+03
   7.700  0.3307E-01  0.5760E+03
   7.800  0.8051E-03  0.5760E+03
   7.900  0.8003E-05  0.5760E+03
   8.000  0.8761E-04  0.5760E+03
   8.100  0.2875E-02  0.5760E+03
   8.200  0.3299E-01  0.5760E+03
   8.300  0.1403E+00  0.5760E+03
   8.400  0.2527E+00  0.5760E+03
   8.500  0.2465E+00  0.5761E+03
   8.600  0.3054E+00  0.5761E+03
   8.700  0.5956E+00  0.5762E+03
   8.800  0.7288E+00  0.5762E+03
   8.900  0.7802E+00  0.5763E+03
   9.000  0.8458E+00  0.5764E+03
   9.100  0.9195E+00  0.5765E+03
   9.200  0.1200E+01  0.5766E+03
   9.300  0.1357E+01  0.5767E+03
   9.400  0.1609E+01  0.5769E+03
   9.500  0.1954E+01  0.5771E+03
   9.600  0.1765E+01  0.5773E+03
   9.700  0.1735E+01  0.5774E+03
   9.800  0.2228E+01  0.5777E+03
   9.900  0.2787E+01  0.5779E+03
  10.000  0.2968E+01  0.5782E+03
  10.100  0.2824E+01  0.5785E+03
  10.200  0.3225E+01  0.5789E+03
  10.300  0.3537E+01  0.5792E+03
  10.400  0.3451E+01  0.5795E+03
  10.500  0.3656E+01  0.5799E+03
  10.600  0.4712E+01  0.5804E+03
  10.700  0.5490E+01  0.5809E+03
  10.800  0.5106E+01  0.5814E+03
  10.900  0.4416E+01  0.5819E+03
  11.000  0.4857E+01  0.5824E+03
  11.100  0.6437E+01  0.5830E+03
  11.200  0.7301E+01  0.5837E+03
  11.300  0.7392E+01  0.5845E+03
  11.400  0.7365E+01  0.5852E+03
  11.500  0.7508E+01  0.5860E+03
  11.600  0.7436E+01  0.5867E+03
  11.700  0.8064E+01  0.5875E+03
  11.800  0.1063E+02  0.5886E+03
  11.900  0.1250E+02  0.5898E+03
  12.000  0.1174E+02  0.5910E+03
  12.100  0.1118E+02  0.5921E+03
  12.200  0.1192E+02  0.5933E+03
  12.300  0.1415E+02  0.5947E+03
  12.400  0.1845E+02  0.5966E+03
  12.500  0.2082E+02  0.5987E+03
  12.600  0.1958E+02  0.6006E+03
  12.700  0.1886E+02  0.6025E+03
  12.800  0.1908E+02  0.6044E+03
  12.900  0.2022E+02  0.6064E+03
  13.000  0.2369E+02  0.6088E+03
  13.100  0.2476E+02  0.6113E+03
  13.200  0.2208E+02  0.6135E+03
  13.300  0.2094E+02  0.6156E+03
  13.400  0.2304E+02  0.6179E+03
  13.500  0.2577E+02  0.6205E+03
  13.600  0.2717E+02  0.6232E+03
  13.700  0.2761E+02  0.6259E+03
  13.800  0.2766E+02  0.6287E+03
  13.900  0.2736E+02  0.6314E+03
  14.000  0.2826E+02  0.6343E+03
  14.100  0.2873E+02  0.6371E+03
  14.200  0.2950E+02  0.6401E+03
  14.300  0.2911E+02  0.6430E+03
  14.400  0.2643E+02  0.6456E+03
  14.500  0.2276E+02  0.6479E+03
  14.600  0.2050E+02  0.6500E+03
  14.700  0.1874E+02  0.6518E+03
  14.800  0.1759E+02  0.6536E+03
  14.900  0.1792E+02  0.6554E+03
  15.000  0.1877E+02  0.6573E+03
  15.100  0.1992E+02  0.6593E+03
  15.200  0.2250E+02  0.6615E+03
  15.300  0.2540E+02  0.6641E+03
  15.400  0.3110E+02  0.6672E+03
  15.500  0.4193E+02  0.6714E+03
  15.600  0.5381E+02  0.6767E+03
  15.700  0.5575E+02  0.6823E+03
  15.800  0.4731E+02  0.6870E+03
  15.900  0.3738E+02  0.6908E+03
  16.000  0.3135E+02  0.6939E+03
  16.100  0.2757E+02  0.6967E+03
  16.200  0.2392E+02  0.6991E+03
  16.300  0.2086E+02  0.7012E+03
  16.400  0.1716E+02  0.7029E+03
  16.500  0.1302E+02  0.7042E+03
  16.600  0.8955E+01  0.7051E+03
  16.700  0.4895E+01  0.7056E+03
  16.800  0.2495E+01  0.7058E+03
  16.900  0.1289E+01  0.7059E+03
  17.000  0.5052E+00  0.7060E+03
  17.100  0.1173E+00  0.7060E+03
  17.200  0.1326E-01  0.7060E+03
  17.300  0.6092E-03  0.7060E+03
  17.400  0.1025E-04  0.7060E+03
  17.500  0.6044E-07  0.7060E+03
  17.600  0.1226E-09  0.7060E+03
  17.700  0.8487E-13  0.7060E+03
  17.800  0.2000E-16  0.7060E+03
  17.900  0.1603E-20  0.7060E+03
  18.000  0.4362E-25  0.7060E+03
