#  E (eV)   dos(E)     Int dos(E) EFermi =    8.731 eV
  -2.000  0.4476E-83  0.4476E-84
  -1.900  0.4476E-83  0.8952E-84
  -1.800  0.4476E-83  0.1343E-83
  -1.700  0.4476E-83  0.1790E-83
  -1.600  0.4476E-83  0.2238E-83
  -1.500  0.4476E-83  0.2686E-83
  -1.400  0.4476E-83  0.3133E-83
  -1.300  0.4481E-83  0.3581E-83
  -1.200  0.5695E-77  0.5695E-78
  -1.100  0.1159E-68  0.1159E-69
  -1.000  0.8038E-61  0.8038E-62
  -0.900  0.1902E-53  0.1902E-54
  -0.800  0.1535E-46  0.1535E-47
  -0.700  0.4233E-40  0.4233E-41
  -0.600  0.3989E-34  0.3989E-35
  -0.500  0.1286E-28  0.1286E-29
  -0.400  0.1421E-23  0.1421E-24
  -0.300  0.5386E-19  0.5386E-20
  -0.200  0.7017E-15  0.7018E-16
  -0.100  0.3151E-11  0.3151E-12
   0.000  0.4890E-08  0.4893E-09
   0.100  0.2635E-05  0.2640E-06
   0.200  0.4958E-03  0.4985E-04
   0.300  0.3286E-01  0.3336E-02
   0.400  0.7790E+00  0.8123E-01
   0.500  0.6847E+01  0.7660E+00
   0.600  0.2499E+02  0.3265E+01
   0.700  0.5159E+02  0.8424E+01
   0.800  0.8637E+02  0.1706E+02
   0.900  0.1228E+03  0.2934E+02
   1.000  0.1495E+03  0.4430E+02
   1.100  0.1581E+03  0.6010E+02
   1.200  0.1588E+03  0.7598E+02
   1.300  0.1746E+03  0.9344E+02
   1.400  0.2074E+03  0.1142E+03
   1.500  0.2289E+03  0.1371E+03
   1.600  0.2188E+03  0.1589E+03
   1.700  0.1993E+03  0.1789E+03
   1.800  0.1767E+03  0.1966E+03
   1.900  0.1402E+03  0.2106E+03
   2.000  0.1047E+03  0.2210E+03
   2.100  0.8588E+02  0.2296E+03
   2.200  0.9710E+02  0.2393E+03
   2.300  0.1650E+03  0.2558E+03
   2.400  0.2596E+03  0.2818E+03
   2.500  0.3091E+03  0.3127E+03
   2.600  0.2677E+03  0.3395E+03
   2.700  0.1633E+03  0.3558E+03
   2.800  0.8209E+02  0.3640E+03
   2.900  0.5595E+02  0.3696E+03
   3.000  0.5790E+02  0.3754E+03
   3.100  0.5948E+02  0.3814E+03
   3.200  0.5729E+02  0.3871E+03
   3.300  0.6090E+02  0.3932E+03
   3.400  0.6516E+02  0.3997E+03
   3.500  0.5747E+02  0.4054E+03
   3.600  0.4333E+02  0.4098E+03
   3.700  0.3554E+02  0.4133E+03
   3.800  0.3400E+02  0.4167E+03
   3.900  0.3770E+02  0.4205E+03
   4.000  0.4405E+02  0.4249E+03
   4.100  0.4512E+02  0.4294E+03
   4.200  0.4303E+02  0.4337E+03
   4.300  0.4530E+02  0.4382E+03
   4.400  0.5149E+02  0.4434E+03
   4.500  0.5489E+02  0.4489E+03
   4.600  0.5428E+02  0.4543E+03
   4.700  0.5686E+02  0.4600E+03
   4.800  0.6019E+02  0.4660E+03
   4.900  0.5727E+02  0.4717E+03
   5.000  0.5914E+02  0.4777E+03
   5.100  0.6436E+02  0.4841E+03
   5.200  0.6727E+02  0.4908E+03
   5.300  0.7038E+02  0.4979E+03
   5.400  0.7659E+02  0.5055E+03
   5.500  0.8646E+02  0.5142E+03
   5.600  0.9858E+02  0.5240E+03
   5.700  0.9824E+02  0.5338E+03
   5.800  0.8531E+02  0.5424E+03
   5.900  0.7288E+02  0.5497E+03
   6.000  0.6083E+02  0.5558E+03
   6.100  0.5078E+02  0.5608E+03
   6.200  0.4420E+02  0.5652E+03
   6.300  0.3640E+02  0.5689E+03
   6.400  0.2798E+02  0.5717E+03
   6.500  0.2123E+02  0.5738E+03
   6.600  0.1388E+02  0.5752E+03
   6.700  0.6269E+01  0.5758E+03
   6.800  0.1564E+01  0.5760E+03
   6.900  0.1776E+00  0.5760E+03
   7.000  0.8088E-02  0.5760E+03
   7.100  0.1375E-03  0.5760E+03
   7.200  0.8397E-06  0.5760E+03
   7.300  0.4934E-08  0.5760E+03
   7.400  0.1263E-05  0.5760E+03
   7.500  0.1727E-03  0.5760E+03
   7.600  0.8017E-02  0.5760E+03
   7.700  0.1263E+00  0.5760E+03
   7.800  0.6757E+00  0.5761E+03
   7.900  0.1228E+01  0.5762E+03
   8.000  0.7937E+00  0.5763E+03
   8.100  0.4985E+00  0.5763E+03
   8.200  0.1060E+01  0.5764E+03
   8.300  0.1098E+01  0.5765E+03
   8.400  0.4081E+00  0.5766E+03
   8.500  0.2820E+00  0.5766E+03
   8.600  0.1290E+01  0.5767E+03
   8.700  0.3215E+01  0.5771E+03
   8.800  0.3823E+01  0.5775E+03
   8.900  0.3062E+01  0.5778E+03
   9.000  0.2190E+01  0.5780E+03
   9.100  0.1260E+01  0.5781E+03
   9.200  0.2173E+01  0.5783E+03
   9.300  0.4576E+01  0.5788E+03
   9.400  0.4547E+01  0.5792E+03
   9.500  0.2560E+01  0.5795E+03
   9.600  0.2380E+01  0.5797E+03
   9.700  0.4029E+01  0.5801E+03
   9.800  0.6257E+01  0.5808E+03
   9.900  0.6331E+01  0.5814E+03
  10.000  0.4700E+01  0.5819E+03
  10.100  0.5548E+01  0.5824E+03
  10.200  0.7954E+01  0.5832E+03
  10.300  0.7378E+01  0.5839E+03
  10.400  0.6256E+01  0.5846E+03
  10.500  0.7515E+01  0.5853E+03
  10.600  0.8135E+01  0.5861E+03
  10.700  0.6469E+01  0.5868E+03
  10.800  0.6696E+01  0.5875E+03
  10.900  0.8718E+01  0.5883E+03
  11.000  0.1070E+02  0.5894E+03
  11.100  0.1352E+02  0.5907E+03
  11.200  0.1425E+02  0.5922E+03
  11.300  0.1347E+02  0.5935E+03
  11.400  0.1234E+02  0.5948E+03
  11.500  0.1061E+02  0.5958E+03
  11.600  0.1265E+02  0.5971E+03
  11.700  0.1776E+02  0.5989E+03
  11.800  0.1976E+02  0.6008E+03
  11.900  0.1908E+02  0.6027E+03
  12.000  0.1928E+02  0.6047E+03
  12.100  0.1961E+02  0.6066E+03
  12.200  0.1918E+02  0.6085E+03
  12.300  0.2026E+02  0.6106E+03
  12.400  0.2272E+02  0.6128E+03
  12.500  0.2239E+02  0.6151E+03
  12.600  0.2094E+02  0.6172E+03
  12.700  0.1949E+02  0.6191E+03
  12.800  0.1864E+02  0.6210E+03
  12.900  0.1714E+02  0.6227E+03
  13.000  0.1725E+02  0.6244E+03
  13.100  0.1928E+02  0.6264E+03
  13.200  0.2124E+02  0.6285E+03
  13.300  0.2145E+02  0.6306E+03
  13.400  0.2090E+02  0.6327E+03
  13.500  0.1989E+02  0.6347E+03
  13.600  0.1893E+02  0.6366E+03
  13.700  0.2093E+02  0.6387E+03
  13.800  0.2259E+02  0.6409E+03
  13.900  0.2174E+02  0.6431E+03
  14.000  0.2001E+02  0.6451E+03
  14.100  0.2135E+02  0.6473E+03
  14.200  0.2285E+02  0.6495E+03
  14.300  0.2220E+02  0.6518E+03
  14.400  0.2091E+02  0.6539E+03
  14.500  0.2407E+02  0.6563E+03
  14.600  0.3165E+02  0.6594E+03
  14.700  0.3521E+02  0.6629E+03
  14.800  0.3947E+02  0.6669E+03
  14.900  0.5085E+02  0.6720E+03
  15.000  0.6391E+02  0.6784E+03
  15.100  0.6756E+02  0.6851E+03
  15.200  0.6056E+02  0.6912E+03
  15.300  0.4785E+02  0.6960E+03
  15.400  0.3417E+02  0.6994E+03
  15.500  0.2526E+02  0.7019E+03
  15.600  0.2128E+02  0.7040E+03
  15.700  0.1686E+02  0.7057E+03
  15.800  0.1126E+02  0.7068E+03
  15.900  0.7248E+01  0.7076E+03
  16.000  0.3377E+01  0.7079E+03
  16.100  0.7922E+00  0.7080E+03
  16.200  0.8128E-01  0.7080E+03
  16.300  0.3392E-02  0.7080E+03
  16.400  0.5383E-04  0.7080E+03
  16.500  0.3087E-06  0.7080E+03
  16.600  0.6207E-09  0.7080E+03
  16.700  0.4308E-12  0.7080E+03
  16.800  0.1025E-15  0.7080E+03
  16.900  0.8317E-20  0.7080E+03
  17.000  0.2300E-24  0.7080E+03
  17.100  0.2164E-29  0.7080E+03
  17.200  0.6925E-35  0.7080E+03
  17.300  0.7531E-41  0.7080E+03
  17.400  0.2783E-47  0.7080E+03
  17.500  0.3493E-54  0.7080E+03
  17.600  0.1489E-61  0.7080E+03
  17.700  0.2156E-69  0.7080E+03
  17.800  0.1060E-77  0.7080E+03
  17.900  0.4477E-83  0.7080E+03
  18.000  0.4476E-83  0.7080E+03
